Test Title:	3117 3D Patterns						
Date:	09/08/2024						
Time:	13:18						
Operator Name:	ZK, MK, THL						
Comment:	Tx: Reference antenna 3117 sn99222 Vp
Rx: Reference antenna 3117 sn143090
RIS configured towards minus 45 degrees at 1.3 m tx height
						
							
[Scan Axis] Name: 	Elevation  [deg]Start: 	-90.000000	Stop	90.000000	Increment	0.500000[Step Axis] Name: 	Start: 	0.000000	Stop	0.000000	Increment	0.000000[Tert] Name: 	None [Forth] Name: 	None  [ Freq.]  (Sweep:Start,Stop,Step) 	GHz.	3.400000	3.600000	0.000000	11.000000
 [Switch]  	None [Channel]  	S21			 [ Beam] 	None			
Database:			
First Question			
2nd			
3rd			
4th			
			
Frequency	3.500000	GHz	
Channel	S21		
Scan Axis name	Elevation  [deg]		
Scan Axis	Amplitude	Phase	
			
-90.00	-60.655	156.937	
-89.50	-63.734	-175.205	
-89.00	-68.117	-128.668	
-88.50	-67.940	-51.093	
-88.00	-63.133	-6.070	
-87.50	-59.994	19.146	
-87.00	-58.119	39.751	
-86.50	-57.267	56.236	
-86.00	-57.217	71.454	
-85.50	-58.519	88.802	
-85.00	-61.197	109.595	
-84.50	-65.884	139.543	
-84.00	-74.527	-153.282	
-83.50	-66.867	-61.544	
-83.00	-61.623	-31.982	
-82.50	-58.439	-12.843	
-82.00	-56.983	6.030	
-81.50	-56.754	22.299	
-81.00	-57.171	37.139	
-80.50	-58.825	54.613	
-80.00	-62.069	73.421	
-79.50	-69.604	104.414	
-79.00	-71.109	-114.231	
-78.50	-62.553	-80.622	
-78.00	-59.103	-61.843	
-77.50	-57.162	-43.310	
-77.00	-56.178	-26.299	
-76.50	-56.159	-10.939	
-76.00	-57.644	4.162	
-75.50	-61.285	19.798	
-75.00	-68.788	46.226	
-74.50	-73.368	-179.277	
-74.00	-64.186	-127.023	
-73.50	-59.631	-102.778	
-73.00	-57.128	-83.525	
-72.50	-55.660	-68.313	
-72.00	-55.614	-55.410	
-71.50	-57.040	-41.553	
-71.00	-60.061	-26.837	
-70.50	-66.179	-11.577	
-70.00	-79.480	-151.767	
-69.50	-63.553	-151.371	
-69.00	-58.311	-137.911	
-68.50	-55.731	-126.475	
-68.00	-54.871	-117.191	
-67.50	-55.572	-107.375	
-67.00	-57.620	-96.858	
-66.50	-61.438	-84.620	
-66.00	-68.214	-89.276	
-65.50	-68.907	-175.930	
-65.00	-60.550	176.406	
-64.50	-56.471	179.554	
-64.00	-54.390	-173.473	
-63.50	-53.689	-166.649	
-63.00	-54.301	-160.163	
-62.50	-56.111	-155.725	
-62.00	-59.050	-157.161	
-61.50	-62.254	179.474	
-61.00	-60.117	144.831	
-60.50	-56.269	134.857	
-60.00	-53.542	135.617	
-59.50	-52.094	138.903	
-59.00	-51.743	143.866	
-58.50	-52.405	147.441	
-58.00	-53.828	150.672	
-57.50	-55.764	145.826	
-57.00	-57.111	130.133	
-56.50	-56.119	110.396	
-56.00	-53.765	100.365	
-55.50	-51.775	99.235	
-55.00	-50.665	101.235	
-54.50	-50.248	104.757	
-54.00	-50.796	109.022	
-53.50	-52.050	110.871	
-53.00	-53.620	110.331	
-52.50	-54.888	103.735	
-52.00	-55.129	92.533	
-51.50	-54.139	80.811	
-51.00	-52.578	75.551	
-50.50	-51.272	76.457	
-50.00	-50.650	80.076	
-49.50	-50.684	84.606	
-49.00	-51.385	88.420	
-48.50	-52.782	91.616	
-48.00	-54.496	93.502	
-47.50	-55.983	93.037	
-47.00	-56.952	87.522	
-46.50	-56.987	80.360	
-46.00	-55.965	74.364	
-45.50	-54.903	73.574	
-45.00	-53.962	77.520	
-44.50	-53.330	85.478	
-44.00	-53.125	93.311	
-43.50	-53.261	103.455	
-43.00	-53.621	112.871	
-42.50	-54.009	119.757	
-42.00	-54.535	125.821	
-41.50	-55.542	127.770	
-41.00	-56.595	121.677	
-40.50	-56.528	107.065	
-40.00	-55.503	96.975	
-39.50	-54.043	94.055	
-39.00	-53.006	96.522	
-38.50	-52.534	99.646	
-38.00	-52.438	106.792	
-37.50	-52.826	116.599	
-37.00	-53.480	126.107	
-36.50	-54.833	135.352	
-36.00	-56.909	142.720	
-35.50	-59.809	144.975	
-35.00	-63.088	139.473	
-34.50	-64.947	114.222	
-34.00	-63.177	98.241	
-33.50	-61.441	98.346	
-33.00	-60.482	103.715	
-32.50	-60.083	119.365	
-32.00	-59.670	139.014	
-31.50	-59.191	163.569	
-31.00	-58.103	-173.440	
-30.50	-56.866	-152.437	
-30.00	-55.797	-136.739	
-29.50	-55.157	-126.030	
-29.00	-54.749	-118.891	
-28.50	-54.949	-115.144	
-28.00	-55.528	-114.014	
-27.50	-56.442	-118.439	
-27.00	-57.146	-129.307	
-26.50	-57.134	-141.639	
-26.00	-56.315	-153.742	
-25.50	-55.439	-160.545	
-25.00	-54.824	-164.314	
-24.50	-54.642	-166.609	
-24.00	-55.037	-167.717	
-23.50	-55.739	-168.281	
-23.00	-56.850	-170.469	
-22.50	-58.606	-175.147	
-22.00	-60.844	179.170	
-21.50	-63.614	166.222	
-21.00	-66.140	139.667	
-20.50	-65.920	107.437	
-20.00	-64.203	81.012	
-19.50	-61.747	66.451	
-19.00	-59.575	56.719	
-18.50	-57.480	49.598	
-18.00	-55.747	47.301	
-17.50	-54.031	46.594	
-17.00	-52.711	47.135	
-16.50	-51.729	48.758	
-16.00	-51.053	49.996	
-15.50	-50.695	51.861	
-15.00	-50.567	53.204	
-14.50	-50.733	54.324	
-14.00	-51.210	53.864	
-13.50	-51.800	51.468	
-13.00	-52.613	47.927	
-12.50	-53.416	40.766	
-12.00	-53.979	31.050	
-11.50	-54.225	20.636	
-11.00	-53.984	11.977	
-10.50	-53.786	4.486	
-10.00	-53.502	-1.281	
-9.50	-53.225	-6.160	
-9.00	-53.190	-10.711	
-8.50	-53.117	-16.137	
-8.00	-53.313	-19.854	
-7.50	-53.493	-24.355	
-7.00	-53.686	-29.401	
-6.50	-53.794	-35.216	
-6.00	-53.931	-40.899	
-5.50	-53.854	-46.952	
-5.00	-53.619	-52.430	
-4.50	-53.291	-55.957	
-4.00	-53.032	-58.750	
-3.50	-52.782	-59.567	
-3.00	-52.561	-58.453	
-2.50	-52.526	-56.768	
-2.00	-52.724	-54.669	
-1.50	-52.874	-51.616	
-1.00	-52.971	-48.545	
-0.50	-53.333	-42.940	
0.00	-53.436	-36.996	
0.50	-53.559	-29.255	
1.00	-53.623	-21.626	
1.50	-53.640	-12.753	
2.00	-53.710	-3.845	
2.50	-53.549	5.613	
3.00	-53.255	14.549	
3.50	-52.949	22.678	
4.00	-52.458	31.038	
4.50	-51.825	37.613	
5.00	-51.382	44.662	
5.50	-50.918	50.159	
6.00	-50.583	54.963	
6.50	-50.386	59.480	
7.00	-50.203	63.564	
7.50	-50.193	67.701	
8.00	-50.412	71.597	
8.50	-50.796	76.050	
9.00	-51.472	80.246	
9.50	-52.337	85.430	
10.00	-53.302	91.215	
10.50	-54.407	97.077	
11.00	-55.516	105.556	
11.50	-56.734	114.687	
12.00	-58.146	124.852	
12.50	-59.413	132.973	
13.00	-61.126	139.431	
13.50	-63.192	144.067	
14.00	-65.770	148.182	
14.50	-69.357	160.753	
15.00	-74.366	-160.455	
15.50	-69.870	-103.254	
16.00	-64.251	-85.279	
16.50	-60.588	-80.190	
17.00	-58.162	-78.953	
17.50	-56.214	-80.172	
18.00	-54.753	-81.216	
18.50	-53.929	-81.386	
19.00	-53.655	-79.830	
19.50	-53.954	-76.650	
20.00	-54.827	-72.476	
20.50	-56.393	-66.235	
21.00	-58.208	-57.100	
21.50	-60.240	-40.403	
22.00	-61.690	-20.160	
22.50	-62.239	4.957	
23.00	-61.993	22.650	
23.50	-61.313	35.784	
24.00	-60.867	45.681	
24.50	-60.345	48.563	
25.00	-59.873	48.960	
25.50	-59.394	48.040	
26.00	-58.939	43.565	
26.50	-58.597	38.735	
27.00	-58.902	34.033	
27.50	-59.732	26.800	
28.00	-61.521	20.565	
28.50	-64.435	7.907	
29.00	-67.943	-19.402	
29.50	-69.954	-61.420	
30.00	-69.475	-99.433	
30.50	-68.842	-122.654	
31.00	-69.633	-135.292	
31.50	-73.234	-156.454	
32.00	-76.079	154.311	
32.50	-73.873	98.334	
33.00	-68.369	77.740	
33.50	-66.840	63.339	
34.00	-66.476	50.626	
34.50	-66.278	28.847	
35.00	-64.607	4.476	
35.50	-62.508	-11.122	
36.00	-61.018	-20.738	
36.50	-60.702	-29.996	
37.00	-60.550	-41.459	
37.50	-61.205	-51.910	
38.00	-62.962	-63.174	
38.50	-67.291	-70.431	
39.00	-78.593	-100.631	
39.50	-72.773	106.623	
40.00	-66.328	82.918	
40.50	-62.934	69.182	
41.00	-61.416	54.515	
41.50	-61.294	39.591	
42.00	-61.964	17.347	
42.50	-62.912	-8.804	
43.00	-64.009	-42.287	
43.50	-64.028	-79.608	
44.00	-62.911	-111.473	
44.50	-61.739	-133.648	
45.00	-62.516	-148.147	
45.50	-65.781	-173.156	
46.00	-69.813	134.364	
46.50	-67.801	78.073	
47.00	-65.748	48.535	
47.50	-65.904	21.219	
48.00	-65.566	-18.605	
48.50	-63.338	-49.456	
49.00	-61.367	-70.939	
49.50	-60.968	-86.545	
50.00	-62.274	-101.044	
50.50	-65.313	-124.646	
51.00	-67.977	-169.287	
51.50	-67.731	139.884	
52.00	-65.680	110.578	
52.50	-66.268	85.610	
53.00	-68.236	53.928	
53.50	-68.523	-2.367	
54.00	-65.480	-36.914	
54.50	-64.322	-63.774	
55.00	-64.188	-90.933	
55.50	-63.795	-127.030	
56.00	-62.479	-158.085	
56.50	-60.978	179.149	
57.00	-60.897	159.380	
57.50	-62.036	139.932	
58.00	-65.135	119.258	
58.50	-70.485	76.180	
59.00	-71.330	-17.440	
59.50	-65.703	-72.232	
60.00	-61.549	-101.385	
60.50	-58.619	-120.947	
61.00	-57.304	-137.814	
61.50	-57.244	-153.098	
62.00	-58.694	-169.045	
62.50	-61.893	175.964	
63.00	-70.014	153.008	
63.50	-74.646	9.841	
64.00	-65.520	-35.516	
64.50	-60.583	-62.273	
65.00	-57.978	-81.831	
65.50	-56.687	-96.651	
66.00	-57.159	-111.893	
66.50	-58.963	-134.333	
67.00	-61.250	-160.569	
67.50	-64.857	171.936	
68.00	-72.094	105.564	
68.50	-66.991	16.479	
69.00	-62.006	-16.426	
69.50	-59.543	-42.950	
70.00	-57.978	-65.482	
70.50	-57.577	-83.805	
71.00	-58.643	-104.848	
71.50	-60.659	-131.068	
72.00	-63.305	-162.068	
72.50	-67.519	155.626	
73.00	-69.000	66.283	
73.50	-63.084	22.283	
74.00	-60.393	-0.138	
74.50	-59.080	-24.379	
75.00	-58.815	-48.123	
75.50	-59.086	-69.622	
76.00	-60.632	-93.344	
76.50	-63.161	-124.551	
77.00	-65.540	-168.632	
77.50	-67.170	137.338	
78.00	-64.562	75.981	
78.50	-60.948	44.126	
79.00	-59.552	23.375	
79.50	-59.581	-1.102	
80.00	-59.796	-25.696	
80.50	-61.037	-51.291	
81.00	-64.002	-89.300	
81.50	-64.791	-141.400	
82.00	-62.766	174.581	
82.50	-61.685	143.282	
83.00	-61.163	109.969	
83.50	-60.681	78.934	
84.00	-60.769	51.367	
84.50	-61.508	17.056	
85.00	-61.338	-17.728	
85.50	-61.806	-50.715	
86.00	-62.713	-89.960	
86.50	-61.535	-132.880	
87.00	-59.874	-163.090	
87.50	-60.107	172.221	
88.00	-60.580	140.336	
88.50	-61.074	106.317	
89.00	-61.557	69.296	
89.50	-61.599	27.228	
90.00	-60.472	-7.535	
